spectrum
900,0
905,1
910,0
915,0
920,1
925,0
930,0
935,1
940,635
945,1025
950,1235
955,2455
960,3046
965,4020
970,11425
975,16425
980,22425
985,16444
990,11425
995,4020
1000,2044
1005,135
1010,12
1015,0
